#         4977           2           8
# Fri Oct 10 11:09:03 2025
# thar_spec_MM201006_r2000.dat
# UVES high res ThAr spectrum thar_spec_MM201006.dat convolved to R=2,000
# 
# 
# 
# lambda (um)   Intensity

     0.303309      390.224
     0.303385      3542.14
     0.303460      104.439
     0.303536      49.8496
     0.303612      16.7023
     0.303688      15.2657
     0.303764      18.1758
     0.303840      9.37787
     0.303916      5.37743
     0.303992      6.37876
     0.304068      2.74855
     0.304144      14.2134
     0.304220      5.89698
     0.304296      17.1092
     0.304372      5.27101
     0.304448      3.86965
     0.304524      17.1867
     0.304600      11.9103
     0.304676      20.5545
     0.304753      19.3952
     0.304829      11.6800
     0.304905      43.9251
     0.304981      24.4181
     0.305057      44.6350
     0.305134      7.63401
     0.305210      12.7275
     0.305286      7.09549
     0.305363      6.95940
     0.305439      10.6627
     0.305515      8.37252
     0.305592      5.58122
     0.305668      6.11504
     0.305745      12.7381
     0.305821      16.9436
     0.305897      5.80858
     0.305974      4.06310
     0.306050      60.9512
     0.306127      26.7817
     0.306203      37.7120
     0.306280      32.2214
     0.306357      8.09775
     0.306433      5.49857
     0.306510      10.8521
     0.306586      17.4556
     0.306663      14.7672
     0.306740      47.6772
     0.306816      9.48267
     0.306893      59.1799
     0.306970      8.36321
     0.307047      28.8431
     0.307123      16.3467
     0.307200      38.7350
     0.307277      15.4700
     0.307354      9.20178
     0.307431      8.63284
     0.307507      21.3145
     0.307584      12.3211
     0.307661      5.53822
     0.307738      20.3827
     0.307815      11.6405
     0.307892      45.0976
     0.307969      6.80409
     0.308046      35.4333
     0.308123      5.29000
     0.308200      33.3151
     0.308277      51.2653
     0.308354      16.9754
     0.308431      9.14108
     0.308508      28.5307
     0.308585      7.77915
     0.308663      13.8669
     0.308740      12.2277
     0.308817      79.4514
     0.308894      17.2837
     0.308971      17.2890
     0.309049      15.7787
     0.309126      6.40283
     0.309203      10.6436
     0.309280      53.5043
     0.309358      180.110
     0.309435      11.5744
     0.309512      14.8313
     0.309590      11.4211
     0.309667      13.7228
     0.309745      10.7756
     0.309822      8.02996
     0.309900      9.50675
     0.309977      21.5127
     0.310055      12.6115
     0.310132      24.0979
     0.310210      8.64252
     0.310287      18.3101
     0.310365      2.35553
     0.310442      45.2289
     0.310520      33.8338
     0.310598      41.7306
     0.310675      32.4249
     0.310753      7.06393
     0.310831      110.358
     0.310908      4.33963
     0.310986      42.2751
     0.311064      16.7361
     0.311142      14.0808
     0.311219      11.2586
     0.311297      6.51443
     0.311375      11.8892
     0.311453      18.3052
     0.311531      6.65869
     0.311609      89.0407
     0.311686      13.7067
     0.311764      19.6077
     0.311842      3.42891
     0.311920      83.3418
     0.311998      6.44083
     0.312076      18.8722
     0.312154      3.08818
     0.312232      4.42848
     0.312310      41.9616
     0.312388      8.95717
     0.312467      41.6310
     0.312545      124.447
     0.312623      12.9466
     0.312701      12.5579
     0.312779      17.4121
     0.312857      6.93804
     0.312936      10.6213
     0.313014      11.5110
     0.313092      38.0164
     0.313170      7.01337
     0.313249      13.7907
     0.313327      11.1392
     0.313405      53.2108
     0.313484      18.7573
     0.313562      5.86458
     0.313640      96.2010
     0.313719      57.4484
     0.313797      14.8841
     0.313876      109.597
     0.313954      66.2723
     0.314033      52.5117
     0.314111      9.05952
     0.314190      16.3304
     0.314268      28.2579
     0.314347      2.84476
     0.314425      8.12078
     0.314504      8.64833
     0.314583      122.351
     0.314661      10.1151
     0.314740      13.4673
     0.314819      17.5746
     0.314897      3.20544
     0.314976      11.5438
     0.315055      32.5018
     0.315133      22.1588
     0.315212      14.0046
     0.315291      9.80995
     0.315370      26.9538
     0.315449      139.614
     0.315528      10.6526
     0.315606      34.2527
     0.315685      26.8310
     0.315764      18.9891
     0.315843      16.5164
     0.315922      9.68017
     0.316001      13.1531
     0.316080      8.11475
     0.316159      75.0981
     0.316238      10.5796
     0.316317      17.3227
     0.316396      8.80456
     0.316475      7.94921
     0.316555      30.3524
     0.316634      22.9079
     0.316713      8.32323
     0.316792      21.6182
     0.316871      10.9966
     0.316950      166.386
     0.317030      18.1415
     0.317109      66.5124
     0.317188      31.0559
     0.317268      12.6091
     0.317347      106.772
     0.317426      54.5991
     0.317506      9.65485
     0.317585      80.6661
     0.317664      15.0756
     0.317744      27.9986
     0.317823      110.229
     0.317903      93.1124
     0.317982      167.252
     0.318062      38.8682
     0.318141      98.0838
     0.318221      15.9681
     0.318300      10.5310
     0.318380      15.9275
     0.318459      33.6683
     0.318539      8.21234
     0.318619      6.29800
     0.318698      8.77933
     0.318778      22.1627
     0.318858      174.392
     0.318937      11.2698
     0.319017      46.3577
     0.319097      48.9684
     0.319177      22.0279
     0.319256      100.188
     0.319336      18.7183
     0.319416      41.4594
     0.319496      21.4862
     0.319576      142.113
     0.319656      9.43981
     0.319736      16.4970
     0.319816      49.3185
     0.319896      32.2379
     0.319975      4.96364
     0.320055      10.5984
     0.320135      5.87948
     0.320216      22.8343
     0.320296      12.9223
     0.320376      15.7203
     0.320456      41.5175
     0.320536      36.8564
     0.320616      11.8413
     0.320696      10.4941
     0.320776      31.6081
     0.320857      6.24473
     0.320937      7.13554
     0.321017      31.9054
     0.321097      82.3128
     0.321177      46.9750
     0.321258      26.4942
     0.321338      29.3082
     0.321418      80.9350
     0.321499      20.6524
     0.321579      18.7288
     0.321660      40.3040
     0.321740      41.2465
     0.321820      13.8099
     0.321901      14.4125
     0.321981      6.54089
     0.322062      39.9167
     0.322142      72.6412
     0.322223      24.2518
     0.322303      28.2092
     0.322384      9.40958
     0.322465      9.12317
     0.322545      64.7811
     0.322626      43.5941
     0.322707      14.4524
     0.322787      33.8823
     0.322868      43.7629
     0.322949      7.26429
     0.323029      11.5469
     0.323110      27.0062
     0.323191      146.432
     0.323272      93.7351
     0.323352      12.2193
     0.323433      11.3145
     0.323514      51.2240
     0.323595      68.2879
     0.323676      28.6305
     0.323757      15.7230
     0.323838      185.751
     0.323919      79.9739
     0.324000      23.5805
     0.324081      98.8810
     0.324162      20.3694
     0.324243      31.6302
     0.324324      24.7134
     0.324405      334.712
     0.324486      88.0877
     0.324567      59.2300
     0.324648      12.9290
     0.324729      195.389
     0.324811      15.8652
     0.324892      30.5475
     0.324973      126.672
     0.325054      3.93133
     0.325136      8.97767
     0.325217      117.522
     0.325298      28.9599
     0.325380      148.711
     0.325461      16.8290
     0.325542      20.3525
     0.325624      80.5085
     0.325705      206.293
     0.325786      52.9053
     0.325868      47.4532
     0.325949      40.7176
     0.326031      6.74914
     0.326112      38.0948
     0.326194      12.9292
     0.326275      111.975
     0.326357      63.4371
     0.326439      27.6640
     0.326520      14.7819
     0.326602      8.82614
     0.326683      53.8920
     0.326765      10.6096
     0.326847      12.6139
     0.326929      12.1634
     0.327010      18.7961
     0.327092      52.6135
     0.327174      214.189
     0.327256      6.99409
     0.327337      16.2072
     0.327419      94.2854
     0.327501      31.0004
     0.327583      34.2165
     0.327665      16.2244
     0.327747      12.3077
     0.327829      8.06634
     0.327911      14.8231
     0.327993      16.0625
     0.328075      56.8719
     0.328157      122.701
     0.328239      59.8317
     0.328321      22.1682
     0.328403      8.18252
     0.328485      7.82631
     0.328567      143.319
     0.328649      40.4811
     0.328731      13.9864
     0.328814      131.830
     0.328896      10.2188
     0.328978      29.6183
     0.329060      22.5464
     0.329143      113.039
     0.329225      84.7041
     0.329307      38.3808
     0.329389      229.014
     0.329472      17.2423
     0.329554      34.8220
     0.329637      16.5563
     0.329719      10.2641
     0.329801      59.9365
     0.329884      12.5899
     0.329966      20.5548
     0.330049      16.7320
     0.330131      173.735
     0.330214      46.3214
     0.330296      10.7038
     0.330379      84.9781
     0.330462      825.050
     0.330544      64.8315
     0.330627      26.0934
     0.330709      177.130
     0.330792      15.1370
     0.330875      20.5996
     0.330958      239.006
     0.331040      92.9423
     0.331123      27.8170
     0.331206      11.0600
     0.331289      25.3755
     0.331371      66.0203
     0.331454      42.4028
     0.331537      14.6789
     0.331620      16.0312
     0.331703      7.36875
     0.331786      19.0381
     0.331869      22.3644
     0.331952      39.8968
     0.332035      59.8178
     0.332118      81.1990
     0.332201      43.7745
     0.332284      15.0707
     0.332367      7.24131
     0.332450      96.2287
     0.332533      213.538
     0.332616      24.3014
     0.332699      71.6402
     0.332783      16.4223
     0.332866      22.0628
     0.332949      52.7154
     0.333032      721.163
     0.333116      25.2804
     0.333199      18.9135
     0.333282      329.805
     0.333365      15.0048
     0.333449      107.393
     0.333532      47.9808
     0.333615      68.4623
     0.333699      28.0103
     0.333782      124.486
     0.333866      37.0856
     0.333949      11.8181
     0.334033      36.0288
     0.334116      27.7761
     0.334200      16.6575
     0.334283      19.9759
     0.334367      32.6045
     0.334450      37.5691
     0.334534      20.3404
     0.334618      68.4628
     0.334701      25.1248
     0.334785      23.3561
     0.334869      560.897
     0.334952      22.6315
     0.335036      28.1133
     0.335120      499.174
     0.335204      18.9484
     0.335288      15.6442
     0.335371      19.5810
     0.335455      77.7447
     0.335539      113.886
     0.335623      19.3721
     0.335707      40.3829
     0.335791      12.4973
     0.335875      198.789
     0.335959      29.6704
     0.336043      29.0555
     0.336127      216.479
     0.336211      88.5897
     0.336295      39.7212
     0.336379      27.7160
     0.336463      47.4535
     0.336547      134.477
     0.336631      56.0679
     0.336715      26.1129
     0.336800      76.8850
     0.336884      11.8569
     0.336968      34.2627
     0.337052      26.5290
     0.337136      23.4618
     0.337221      38.4959
     0.337305      97.6249
     0.337389      112.428
     0.337474      218.030
     0.337558      32.5158
     0.337642      403.216
     0.337727      38.5338
     0.337811      11.9726
     0.337896      82.9384
     0.337980      42.6249
     0.338065      210.277
     0.338149      26.3451
     0.338234      10.2272
     0.338318      41.6827
     0.338403      26.1966
     0.338488      12.1141
     0.338572      68.1871
     0.338657      52.2449
     0.338741      18.9391
     0.338826      245.525
     0.338911      97.5475
     0.338996      78.9070
     0.339080      36.7000
     0.339165      325.304
     0.339250      29.5604
     0.339335      72.7311
     0.339420      33.8342
     0.339504      26.9744
     0.339589      21.7699
     0.339674      186.299
     0.339759      499.728
     0.339844      450.470
     0.339929      18.4272
     0.340014      10.9076
     0.340099      12.8210
     0.340184      92.5076
     0.340269      275.742
     0.340354      51.7744
     0.340439      36.0720
     0.340524      256.352
     0.340609      51.8503
     0.340695      14.9735
     0.340780      40.9147
     0.340865      308.119
     0.340950      32.7888
     0.341035      42.9430
     0.341121      21.5904
     0.341206      25.0377
     0.341291      259.192
     0.341377      28.9695
     0.341462      208.711
     0.341547      28.7510
     0.341633      24.9157
     0.341718      68.6424
     0.341804      7.33086
     0.341889      78.6516
     0.341974      3.53747
     0.342060      20.4272
     0.342145      606.511
     0.342231      112.432
     0.342317      30.8369
     0.342402      690.702
     0.342488      37.7032
     0.342573      39.7634
     0.342659      15.7617
     0.342745      46.5819
     0.342830      221.333
     0.342916      373.114
     0.343002      137.338
     0.343088      37.9184
     0.343173      33.8302
     0.343259      13.4432
     0.343345      54.1275
     0.343431      263.184
     0.343517      36.8213
     0.343602      313.393
     0.343688      734.857
     0.343774      336.348
     0.343860      43.5479
     0.343946      204.368
     0.344032      7.92407
     0.344118      33.4118
     0.344204      3.64511
     0.344290      90.1531
     0.344376      18.5403
     0.344462      7.53108
     0.344549      50.0417
     0.344635      96.5291
     0.344721      18.1010
     0.344807      14.1449
     0.344893      45.3796
     0.344979      34.7558
     0.345066      20.8696
     0.345152      207.563
     0.345238      43.1656
     0.345325      93.3999
     0.345411      119.576
     0.345497      38.6603
     0.345584      40.3390
     0.345670      148.815
     0.345756      30.8440
     0.345843      82.8681
     0.345929      39.2245
     0.346016      12.0367
     0.346102      1532.34
     0.346189      197.416
     0.346275      66.4366
     0.346362      38.9731
     0.346449      110.663
     0.346535      100.483
     0.346622      307.499
     0.346708      70.2901
     0.346795      75.0994
     0.346882      10.6140
     0.346969      383.109
     0.347055      59.4759
     0.347142      172.657
     0.347229      74.1455
     0.347316      33.6236
     0.347403      22.1690
     0.347489      21.6858
     0.347576      27.4269
     0.347663      621.733
     0.347750      20.4353
     0.347837      153.578
     0.347924      105.527
     0.348011      168.252
     0.348098      29.9052
     0.348185      15.5538
     0.348272      69.0454
     0.348359      36.3773
     0.348446      27.1659
     0.348533      45.2241
     0.348620      653.723
     0.348708      27.3341
     0.348795      29.6685
     0.348882      80.7073
     0.348969      90.5371
     0.349056      118.023
     0.349144      1244.51
     0.349231      33.7330
     0.349318      65.4009
     0.349406      5.23053
     0.349493      11.5363
     0.349580      140.399
     0.349668      228.450
     0.349755      35.4401
     0.349843      153.686
     0.349930      75.4042
     0.350017      69.6802
     0.350105      46.4203
     0.350193      69.4050
     0.350280      74.6666
     0.350368      124.653
     0.350455      21.8899
     0.350543      37.0891
     0.350630      68.8001
     0.350718      44.0482
     0.350806      36.8941
     0.350894      64.1831
     0.350981      563.981
     0.351069      88.8360
     0.351157      363.788
     0.351245      18.6232
     0.351332      18.8913
     0.351420      667.598
     0.351508      129.109
     0.351596      27.9960
     0.351684      21.3636
     0.351772      17.8855
     0.351860      239.563
     0.351948      13.7692
     0.352036      112.553
     0.352124      112.258
     0.352212      87.7797
     0.352300      13.0467
     0.352388      135.930
     0.352476      209.101
     0.352564      7.77331
     0.352652      175.528
     0.352740      48.8974
     0.352829      55.4743
     0.352917      173.110
     0.353005      46.4668
     0.353093      131.294
     0.353181      153.718
     0.353270      18.3928
     0.353358      42.7346
     0.353446      38.3718
     0.353535      247.396
     0.353623      52.4288
     0.353712      38.0997
     0.353800      17.2543
     0.353888      63.9817
     0.353977      379.934
     0.354065      11.3842
     0.354154      15.8646
     0.354242      56.2006
     0.354331      53.8326
     0.354420      113.536
     0.354508      76.7013
     0.354597      1718.05
     0.354685      21.3765
     0.354774      86.1537
     0.354863      150.580
     0.354952      122.961
     0.355040      71.7887
     0.355129      299.746
     0.355218      15.1000
     0.355307      44.3068
     0.355395      177.481
     0.355484      230.471
     0.355573      73.2270
     0.355662      200.739
     0.355751      60.1341
     0.355840      20.4868
     0.355929      2138.75
     0.356018      163.584
     0.356107      2260.28
     0.356196      168.635
     0.356285      36.1255
     0.356374      74.8866
     0.356463      257.591
     0.356552      87.2631
     0.356641      55.8736
     0.356731      804.162
     0.356820      18.3717
     0.356909      15.2607
     0.356998      188.714
     0.357087      31.8709
     0.357177      30.1404
     0.357266      67.1779
     0.357355      14.6145
     0.357445      19.4258
     0.357534      142.310
     0.357623      1004.01
     0.357713      37.5446
     0.357802      26.8620
     0.357892      44.2471
     0.357981      96.7463
     0.358071      11.3005
     0.358160      508.927
     0.358250      918.149
     0.358339      95.4863
     0.358429      223.321
     0.358518      27.4240
     0.358608      26.9835
     0.358698      17.2069
     0.358787      75.3420
     0.358877      1496.25
     0.358967      272.419
     0.359057      42.6637
     0.359146      275.581
     0.359236      214.814
     0.359326      57.5162
     0.359416      33.9697
     0.359506      71.2971
     0.359595      82.0426
     0.359685      13.4587
     0.359775      678.248
     0.359865      32.3577
     0.359955      51.7185
     0.360045      51.0147
     0.360135      95.1322
     0.360225      15.3502
     0.360315      73.0999
     0.360405      38.9663
     0.360495      110.361
     0.360586      196.071
     0.360676      158.975
     0.360766      19.7095
     0.360856      184.103
     0.360946      324.248
     0.361037      162.562
     0.361127      50.0955
     0.361217      1617.27
     0.361307      486.258
     0.361398      272.671
     0.361488      244.339
     0.361578      99.9336
     0.361669      95.7820
     0.361759      71.8188
     0.361850      121.335
     0.361940      183.090
     0.362031      67.0645
     0.362121      123.508
     0.362212      356.354
     0.362302      224.169
     0.362393      64.9294
     0.362483      287.478
     0.362574      256.505
     0.362665      95.7144
     0.362755      17.2067
     0.362846      10.6675
     0.362937      14.7732
     0.363027      15.9437
     0.363118      10.6724
     0.363209      21.0492
     0.363300      110.562
     0.363391      14.2866
     0.363481      359.313
     0.363572      323.388
     0.363663      201.950
     0.363754      126.281
     0.363845      243.432
     0.363936      168.109
     0.364027      308.182
     0.364118      39.7228
     0.364209      1876.77
